SnO2 ● Tin Oxide
Wavelength = 0.9764Å
14.0	0.31
14.025	0.31
14.05	0.32
14.075	0.32
14.1	0.33
14.125	0.34
14.15	0.34
14.175	0.35
14.2	0.36
14.225	0.36
14.25	0.37
14.275	0.38
14.3	0.39
14.325	0.39
14.35	0.4
14.375	0.41
14.4	0.42
14.425	0.43
14.45	0.44
14.475	0.45
14.5	0.46
14.525	0.47
14.55	0.48
14.575	0.49
14.6	0.5
14.625	0.51
14.65	0.52
14.675	0.54
14.7	0.55
14.725	0.56
14.75	0.58
14.775	0.59
14.8	0.61
14.825	0.62
14.85	0.64
14.875	0.66
14.9	0.67
14.925	0.69
14.95	0.71
14.975	0.73
15.0	0.75
15.025	0.78
15.05	0.8
15.075	0.82
15.1	0.85
15.125	0.87
15.15	0.9
15.175	0.93
15.2	0.96
15.225	0.99
15.25	1.02
15.275	1.06
15.3	1.1
15.325	1.13
15.35	1.17
15.375	1.22
15.4	1.26
15.425	1.31
15.45	1.36
15.475	1.41
15.5	1.47
15.525	1.53
15.55	1.6
15.575	1.66
15.6	1.74
15.625	1.81
15.65	1.9
15.675	1.99
15.7	2.08
15.725	2.18
15.75	2.29
15.775	2.41
15.8	2.54
15.825	2.67
15.85	2.82
15.875	2.98
15.9	3.16
15.925	3.35
15.95	3.56
15.975	3.79
16.0	4.05
16.025	4.33
16.05	4.63
16.075	4.98
16.1	5.36
16.125	5.79
16.15	6.27
16.175	6.81
16.2	7.43
16.225	8.14
16.25	8.94
16.275	9.88
16.3	10.97
16.325	12.24
16.35	13.75
16.375	15.54
16.4	17.71
16.425	20.44
16.45	23.73
16.475	27.93
16.5	33.57
16.525	41.77
16.55	55.05
16.575	78.45
16.6	120.56
16.625	192.97
16.65	306.38
16.675	462.83
16.7	646.25
16.725	813.27
16.75	894.63
16.775	842.64
16.8	688.96
16.825	504.33
16.85	339.28
16.875	215.51
16.9	134.31
16.925	86.23
16.95	59.37
16.975	44.3
17.0	35.21
17.025	29.11
17.05	24.64
17.075	21.17
17.1	18.39
17.125	16.12
17.15	14.24
17.175	12.67
17.2	11.35
17.225	10.23
17.25	9.26
17.275	8.43
17.3	7.7
17.325	7.06
17.35	6.51
17.375	6.01
17.4	5.57
17.425	5.18
17.45	4.83
17.475	4.52
17.5	4.23
17.525	3.98
17.55	3.74
17.575	3.53
17.6	3.34
17.625	3.16
17.65	2.99
17.675	2.84
17.7	2.71
17.725	2.58
17.75	2.46
17.775	2.35
17.8	2.25
17.825	2.16
17.85	2.07
17.875	1.99
17.9	1.91
17.925	1.84
17.95	1.77
17.975	1.71
18.0	1.65
18.025	1.6
18.05	1.54
18.075	1.49
18.1	1.45
18.125	1.41
18.15	1.37
18.175	1.33
18.2	1.29
18.225	1.26
18.25	1.23
18.275	1.2
18.3	1.17
18.325	1.14
18.35	1.11
18.375	1.09
18.4	1.07
18.425	1.05
18.45	1.03
18.475	1.01
18.5	0.99
18.525	0.97
18.55	0.96
18.575	0.94
18.6	0.93
18.625	0.91
18.65	0.9
18.675	0.89
18.7	0.88
18.725	0.87
18.75	0.86
18.775	0.85
18.8	0.84
18.825	0.83
18.85	0.83
18.875	0.82
18.9	0.82
18.925	0.81
18.95	0.83
18.975	0.83
19.0	0.82
19.025	0.82
19.05	0.82
19.075	0.82
19.1	0.82
19.125	0.82
19.15	0.82
19.175	0.82
19.2	0.82
19.225	0.82
19.25	0.83
19.275	0.83
19.3	0.84
19.325	0.84
19.35	0.85
19.375	0.85
19.4	0.86
19.425	0.87
19.45	0.88
19.475	0.89
19.5	0.9
19.525	0.91
19.55	0.92
19.575	0.93
19.6	0.94
19.625	0.96
19.65	0.98
19.675	0.99
19.7	1.01
19.725	1.03
19.75	1.05
19.775	1.07
19.8	1.09
19.825	1.12
19.85	1.14
19.875	1.17
19.9	1.2
19.925	1.23
19.95	1.27
19.975	1.3
20.0	1.34
20.025	1.38
20.05	1.43
20.075	1.47
20.1	1.52
20.125	1.58
20.15	1.63
20.175	1.7
20.2	1.76
20.225	1.83
20.25	1.91
20.275	1.99
20.3	2.08
20.325	2.18
20.35	2.28
20.375	2.4
20.4	2.52
20.425	2.66
20.45	2.8
20.475	2.97
20.5	3.14
20.525	3.34
20.55	3.56
20.575	3.79
20.6	4.06
20.625	4.36
20.65	4.69
20.675	5.07
20.7	5.49
20.725	5.98
20.75	6.53
20.775	7.17
20.8	7.9
20.825	8.76
20.85	9.76
20.875	10.96
20.9	12.39
20.925	14.11
20.95	16.23
20.975	18.87
21.0	22.28
21.025	26.93
21.05	33.88
21.075	45.42
21.1	65.95
21.125	102.62
21.15	164.35
21.175	258.14
21.2	382.85
21.225	522.05
21.25	637.74
21.275	676.89
21.3	615.8
21.325	490.08
21.35	351.72
21.375	233.39
21.4	147.35
21.425	92.22
21.45	60.06
21.475	42.15
21.5	31.98
21.525	25.71
21.55	21.41
21.575	18.11
21.6	15.61
21.625	13.59
21.65	11.95
21.675	10.58
21.7	9.43
21.725	8.47
21.75	7.64
21.775	6.94
21.8	6.32
21.825	5.79
21.85	5.32
21.875	4.91
21.9	4.55
21.925	4.23
21.95	3.94
21.975	3.68
22.0	3.45
22.025	3.24
22.05	3.06
22.075	2.88
22.1	2.73
22.125	2.59
22.15	2.46
22.175	2.34
22.2	2.24
22.225	2.14
22.25	2.05
22.275	1.97
22.3	1.89
22.325	1.82
22.35	1.76
22.375	1.72
22.4	1.66
22.425	1.62
22.45	1.57
22.475	1.53
22.5	1.49
22.525	1.46
22.55	1.43
22.575	1.4
22.6	1.38
22.625	1.36
22.65	1.34
22.675	1.33
22.7	1.32
22.725	1.31
22.75	1.31
22.775	1.3
22.8	1.3
22.825	1.31
22.85	1.32
22.875	1.33
22.9	1.34
22.925	1.36
22.95	1.39
22.975	1.41
23.0	1.45
23.025	1.49
23.05	1.53
23.075	1.58
23.1	1.65
23.125	1.72
23.15	1.8
23.175	1.89
23.2	2.0
23.225	2.12
23.25	2.26
23.275	2.43
23.3	2.62
23.325	2.84
23.35	3.11
23.375	3.43
23.4	3.81
23.425	4.27
23.45	4.83
23.475	5.54
23.5	6.44
23.525	7.65
23.55	9.41
23.575	12.28
23.6	17.33
23.625	26.38
23.65	41.88
23.675	66.03
23.7	99.23
23.725	138.07
23.75	173.44
23.775	190.82
23.8	180.14
23.825	147.87
23.85	108.81
23.875	73.7
23.9	47.21
23.925	29.73
23.95	19.32
23.975	13.51
24.0	10.27
24.025	8.35
24.05	7.1
24.075	6.22
24.1	5.58
24.125	5.12
24.15	4.82
24.175	4.69
24.2	4.8
24.225	5.3
24.25	6.47
24.275	8.69
24.3	12.33
24.325	17.48
24.35	23.65
24.375	29.43
24.4	32.49
24.425	31.03
24.45	25.87
24.475	19.42
24.5	13.51
24.525	8.99
24.55	5.95
24.575	4.11
24.6	3.05
24.625	2.44
24.65	2.07
24.675	1.81
24.7	1.61
24.725	1.45
24.75	1.32
24.775	1.21
24.8	1.12
24.825	1.04
24.85	0.97
24.875	0.91
24.9	0.85
24.925	0.81
24.95	0.76
24.975	0.72
25.0	0.69
25.025	0.65
25.05	0.62
25.075	0.6
25.1	0.57
25.125	0.55
25.15	0.53
25.175	0.51
25.2	0.49
25.225	0.47
25.25	0.45
25.275	0.44
25.3	0.42
25.325	0.41
25.35	0.4
25.375	0.39
25.4	0.39
25.425	0.38
25.45	0.38
25.475	0.37
25.5	0.36
25.525	0.35
25.55	0.34
25.575	0.34
25.6	0.33
25.625	0.32
25.65	0.32
25.675	0.31
25.7	0.31
25.725	0.3
25.75	0.3
25.775	0.3
25.8	0.29
25.825	0.29
25.85	0.29
25.875	0.29
25.9	0.29
25.925	0.28
25.95	0.28
25.975	0.29
26.0	0.29
26.025	0.29
26.05	0.29
26.075	0.3
26.1	0.23
26.125	0.23
26.15	0.24
26.175	0.25
26.2	0.27
26.225	0.28
26.25	0.3
26.275	0.33
26.3	0.36
26.325	0.4
26.35	0.45
26.375	0.51
26.4	0.61
26.425	0.77
26.45	1.02
26.475	1.5
26.5	2.35
26.525	3.69
26.55	5.59
26.575	7.89
26.6	10.14
26.625	11.5
26.65	11.23
26.675	9.49
26.7	7.15
26.725	4.93
26.75	3.2
26.775	2.02
26.8	1.31
26.825	0.9
26.85	0.67
26.875	0.54
26.9	0.45
26.925	0.38
26.95	0.33
26.975	0.3
27.0	0.26
27.025	0.24
27.05	0.22
27.075	0.2
27.1	0.18
27.125	0.17
27.15	0.16
27.175	0.14
27.2	0.14
27.225	0.18
27.25	0.17
27.275	0.17
27.3	0.16
27.325	0.16
27.35	0.15
27.375	0.15
27.4	0.15
27.425	0.14
27.45	0.14
27.475	0.14
27.5	0.14
27.525	0.13
27.55	0.13
27.575	0.13
27.6	0.13
27.625	0.13
27.65	0.13
27.675	0.13
27.7	0.12
27.725	0.12
27.75	0.12
27.775	0.12
27.8	0.12
27.825	0.12
27.85	0.12
27.875	0.12
27.9	0.1
27.925	0.1
27.95	0.1
27.975	0.1
28.0	0.1
28.025	0.1
28.05	0.1
28.075	0.1
28.1	0.11
28.125	0.11
28.15	0.11
28.175	0.11
28.2	0.11
28.225	0.11
28.25	0.11
28.275	0.11
28.3	0.11
28.325	0.11
28.35	0.11
28.375	0.11
28.4	0.12
28.425	0.12
28.45	0.12
28.475	0.12
28.5	0.12
28.525	0.12
28.55	0.12
28.575	0.12
28.6	0.12
28.625	0.1
28.65	0.11
28.675	0.11
28.7	0.11
28.725	0.11
28.75	0.11
28.775	0.11
28.8	0.12
28.825	0.12
28.85	0.12
28.875	0.12
28.9	0.12
28.925	0.12
28.95	0.13
28.975	0.13
29.0	0.13
29.025	0.13
29.05	0.13
29.075	0.14
29.1	0.14
29.125	0.14
29.15	0.14
29.175	0.15
29.2	0.15
29.225	0.15
29.25	0.15
29.275	0.16
29.3	0.16
29.325	0.16
29.35	0.17
29.375	0.17
29.4	0.17
29.425	0.18
29.45	0.18
29.475	0.18
29.5	0.19
29.525	0.19
29.55	0.19
29.575	0.2
29.6	0.2
29.625	0.2
29.65	0.21
29.675	0.21
29.7	0.22
29.725	0.22
29.75	0.23
29.775	0.23
29.8	0.24
29.825	0.24
29.85	0.25
29.875	0.25
29.9	0.26
29.925	0.26
29.95	0.27
29.975	0.28
30.0	0.28
30.025	0.29
30.05	0.3
30.075	0.32
30.1	0.33
30.125	0.34
30.15	0.35
30.175	0.36
30.2	0.37
30.225	0.38
30.25	0.39
30.275	0.4
30.3	0.41
30.325	0.42
30.35	0.43
30.375	0.44
30.4	0.45
30.425	0.47
30.45	0.48
30.475	0.5
30.5	0.51
30.525	0.53
30.55	0.54
30.575	0.56
30.6	0.58
30.625	0.6
30.65	0.62
30.675	0.64
30.7	0.66
30.725	0.68
30.75	0.71
30.775	0.73
30.8	0.76
30.825	0.79
30.85	0.82
30.875	0.85
30.9	0.89
30.925	0.92
30.95	0.96
30.975	1.01
31.0	1.05
31.025	1.1
31.05	1.15
31.075	1.2
31.1	1.26
31.125	1.32
31.15	1.39
31.175	1.46
31.2	1.54
31.225	1.63
31.25	1.72
31.275	1.82
31.3	1.93
31.325	2.06
31.35	2.19
31.375	2.33
31.4	2.5
31.425	2.68
31.45	2.87
31.475	3.1
31.5	3.35
31.525	3.63
31.55	3.95
31.575	4.31
31.6	4.72
31.625	5.2
31.65	5.75
31.675	6.39
31.7	7.15
31.725	8.05
31.75	9.13
31.775	10.44
31.8	12.05
31.825	14.08
31.85	16.74
31.875	20.47
31.9	26.25
31.925	36.1
31.95	53.68
31.975	84.42
32.0	134.33
32.025	206.83
32.05	298.38
32.075	393.63
32.1	462.34
32.125	470.07
32.15	412.12
32.175	319.57
32.2	225.43
32.225	148.16
32.25	93.48
32.275	59.06
32.3	39.14
32.325	27.99
32.35	21.55
32.375	17.49
32.4	14.66
32.425	12.52
32.45	10.84
32.475	9.48
32.5	8.36
32.525	7.43
32.55	6.65
32.575	5.99
32.6	5.43
32.625	4.95
32.65	4.53
32.675	4.17
32.7	3.85
32.725	3.57
32.75	3.33
32.775	3.11
32.8	2.92
32.825	2.75
32.85	2.6
32.875	2.46
32.9	2.34
32.925	2.23
32.95	2.14
32.975	2.05
33.0	2.0
33.025	1.94
33.05	1.88
33.075	1.83
33.1	1.8
33.125	1.76
33.15	1.74
33.175	1.73
33.2	1.72
33.225	1.72
33.25	1.73
33.275	1.75
33.3	1.78
33.325	1.82
33.35	1.87
33.375	1.94
33.4	2.03
33.425	2.14
33.45	2.27
33.475	2.43
33.5	2.63
33.525	2.88
33.55	3.19
33.575	3.58
33.6	4.09
33.625	4.78
33.65	5.81
33.675	7.5
33.7	10.48
33.725	15.8
33.75	24.8
33.775	38.67
33.8	57.52
33.825	79.36
33.85	99.06
33.875	108.6
33.9	102.54
33.925	84.45
33.95	62.5
33.975	42.64
34.0	27.52
34.025	17.42
34.05	11.34
34.075	7.89
34.1	5.94
34.125	4.77
34.15	4.0
34.175	3.43
34.2	2.99
34.225	2.64
34.25	2.35
34.275	2.11
34.3	1.91
34.325	1.74
34.35	1.6
34.375	1.48
34.4	1.37
34.425	1.28
34.45	1.2
34.475	1.15
34.5	1.08
34.525	1.03
34.55	0.98
34.575	0.94
34.6	0.9
34.625	0.87
34.65	0.84
34.675	0.81
34.7	0.79
34.725	0.77
34.75	0.75
34.775	0.74
34.8	0.72
34.825	0.71
34.85	0.71
34.875	0.7
34.9	0.7
34.925	0.7
34.95	0.7
34.975	0.71
35.0	0.72
35.025	0.73
35.05	0.75
35.075	0.77
35.1	0.79
35.125	0.82
35.15	0.85
35.175	0.9
35.2	0.95
35.225	1.01
35.25	1.08
35.275	1.17
35.3	1.28
35.325	1.41
35.35	1.57
35.375	1.77
35.4	2.04
35.425	2.41
35.45	2.96
35.475	3.89
35.5	5.53
35.525	8.44
35.55	13.27
35.575	20.53
35.6	30.1
35.625	40.75
35.65	49.66
35.675	52.89
35.7	48.54
35.725	39.11
35.75	28.48
35.775	19.21
35.8	12.34
35.825	7.85
35.85	5.17
35.875	3.66
35.9	2.8
35.925	2.28
35.95	1.93
35.975	1.66
36.0	1.46
36.025	1.32
36.05	1.18
36.075	1.07
36.1	0.98
36.125	0.9
36.15	0.83
36.175	0.78
36.2	0.73
36.225	0.68
36.25	0.65
36.275	0.61
36.3	0.61
36.325	0.58
36.35	0.56
36.375	0.54
36.4	0.52
36.425	0.51
36.45	0.49
36.475	0.48
36.5	0.47
36.525	0.46
36.55	0.45
36.575	0.45
36.6	0.44
36.625	0.44
36.65	0.43
36.675	0.43
36.7	0.43
36.725	0.43
36.75	0.43
36.775	0.43
36.8	0.43
36.825	0.43
36.85	0.43
36.875	0.44
36.9	0.44
36.925	0.45
36.95	0.45
36.975	0.46
37.0	0.42
37.025	0.43
37.05	0.44
37.075	0.45
37.1	0.46
37.125	0.48
37.15	0.49
37.175	0.51
37.2	0.53
37.225	0.56
37.25	0.58
37.275	0.61
37.3	0.64
37.325	0.67
37.35	0.71
37.375	0.75
37.4	0.8
37.425	0.86
37.45	0.92
37.475	0.99
37.5	1.07
37.525	1.16
37.55	1.26
37.575	1.39
37.6	1.53
37.625	1.7
37.65	1.91
37.675	2.16
37.7	2.44
37.725	2.82
37.75	3.32
37.775	4.0
37.8	5.04
37.825	6.78
37.85	9.85
37.875	15.24
37.9	24.1
37.925	37.25
37.95	54.36
37.975	73.03
38.0	88.12
38.025	92.78
38.05	84.26
38.075	67.36
38.1	48.79
38.125	32.79
38.15	21.02
38.175	13.36
38.2	8.84
38.225	6.3
38.25	4.88
38.275	4.07
38.3	3.59
38.325	3.35
38.35	3.29
38.375	3.33
38.4	3.45
38.425	3.47
38.45	3.29
38.475	2.92
38.5	2.46
38.525	2.04
38.55	1.7
38.575	1.45
38.6	1.28
38.625	1.17
38.65	1.1
38.675	1.04
38.7	1.01
38.725	0.98
38.75	0.96
38.775	0.94
38.8	0.94
38.825	0.93
38.85	0.94
38.875	0.94
38.9	0.96
38.925	0.97
38.95	0.98
38.975	1.01
39.0	1.04
39.025	1.09
39.05	1.14
39.075	1.19
39.1	1.26
39.125	1.34
39.15	1.43
39.175	1.54
39.2	1.66
39.225	1.81
39.25	1.98
39.275	2.19
39.3	2.44
39.325	2.74
39.35	3.12
39.375	3.6
39.4	4.25
39.425	5.21
39.45	6.77
39.475	9.48
39.5	14.26
39.525	22.29
39.55	34.57
39.575	51.19
39.6	70.43
39.625	87.86
39.65	96.58
39.675	91.72
39.7	76.17
39.725	56.96
39.75	39.39
39.775	25.88
39.8	16.79
39.825	11.3
39.85	8.23
39.875	6.56
39.9	5.63
39.925	5.11
39.95	4.81
39.975	4.67
40.0	4.66
40.025	4.79
40.05	5.05
40.075	5.48
40.1	6.16
40.125	7.28
40.15	9.22
40.175	12.74
40.2	19.02
40.225	29.54
40.25	45.48
40.275	66.74
40.3	90.82
40.325	111.77
40.35	120.84
40.375	112.82
40.4	92.31
40.425	68.14
40.45	46.48
40.475	30.06
40.5	19.1
40.525	12.47
40.55	8.69
40.575	6.53
40.6	5.23
40.625	4.36
40.65	3.72
40.675	3.23
40.7	2.83
40.725	2.5
40.75	2.23
40.775	2.0
40.8	1.81
40.825	1.64
40.85	1.52
40.875	1.39
40.9	1.29
40.925	1.19
40.95	1.11
40.975	1.03
41.0	0.96
41.025	0.9
41.05	0.85
41.075	0.8
41.1	0.76
41.125	0.71
41.15	0.68
41.175	0.64
41.2	0.61
41.225	0.58
41.25	0.56
41.275	0.53
41.3	0.51
41.325	0.49
41.35	0.47
41.375	0.45
41.4	0.44
41.425	0.42
41.45	0.41
41.475	0.39
41.5	0.38
41.525	0.37
41.55	0.36
41.575	0.35
41.6	0.32
41.625	0.31
41.65	0.3
41.675	0.3
41.7	0.29
41.725	0.28
41.75	0.28
41.775	0.27
41.8	0.27
41.825	0.26
